Time (s),Voltage (V),Current (A)
0.05358,0.0,-7.621e-07
0.10391,-0.02,-7.949e-05
0.14567,-0.04,-0.00015746
0.15166,-0.06,-0.00023696
0.15764,-0.08,-0.00031758
0.16362,-0.1,-0.000394
0.1696,-0.12,-0.00047138
0.17559,-0.14,-0.00055072
0.18164,-0.16,-0.00063054
0.18761,-0.18,-0.00071104
0.1936,-0.2,-0.00078828
0.19957,-0.22,-0.0008661
0.20555,-0.24,-0.0009479
0.21154,-0.26,-0.00102676
0.21752,-0.28,-0.00110232
0.25048,-0.3,-0.0011868
0.25647,-0.32,-0.0012612
0.26247,-0.34,-0.0013396
0.26843,-0.36,-0.00142
0.27441,-0.38,-0.0014998
0.2804,-0.4,-0.001576
0.28638,-0.42,-0.0016534
0.29238,-0.44,-0.0017358
0.29843,-0.46,-0.001812
0.30444,-0.48,-0.0018916
0.3105,-0.5,-0.0019706
0.31624,-0.52,-0.0020472
0.32197,-0.54,-0.002128
0.3277,-0.56,-0.0022064
0.33368,-0.58,-0.0022894
0.33973,-0.6,-0.0023622
0.34578,-0.62,-0.002441
0.35176,-0.64,-0.0025208
0.35775,-0.66,-0.0026006
0.36372,-0.68,-0.0026764
0.36979,-0.7,-0.0027536
0.37577,-0.72,-0.0028356
0.38174,-0.74,-0.002911
0.38771,-0.76,-0.0029912
0.39371,-0.78,-0.003069
0.39975,-0.8,-0.0031458
0.40574,-0.82,-0.0032286
0.41173,-0.84,-0.0033028
0.41771,-0.86,-0.0033812
0.4237,-0.88,-0.0034608
0.42968,-0.9,-0.003538
0.43565,-0.92,-0.0036156
0.44164,-0.94,-0.0036924
0.4476,-0.96,-0.0037688
0.4536,-0.98,-0.0038508
0.45959,-1.0,-0.0039268
0.46557,-1.02,-0.0040036
0.47156,-1.04,-0.004083
0.47754,-1.06,-0.0041608
0.48354,-1.08,-0.0042428
0.48951,-1.1,-0.0043162
0.49549,-1.12,-0.0043928
0.50146,-1.14,-0.004471
0.50745,-1.16,-0.0045502
0.51345,-1.18,-0.0046258
0.51944,-1.2,-0.0047018
0.52542,-1.22,-0.0047756
0.5314,-1.24,-0.0048574
0.53739,-1.26,-0.0049354
0.54338,-1.28,-0.0050108
0.54938,-1.3,-0.0050866
0.55537,-1.32,-0.005166
0.5614,-1.34,-0.0052438
0.56736,-1.36,-0.0053178
0.57339,-1.38,-0.0053964
0.57938,-1.4,-0.0054718
0.58537,-1.42,-0.0055484
0.59136,-1.44,-0.0056262
0.59734,-1.46,-0.0056988
0.60333,-1.48,-0.0057782
0.60932,-1.5,-0.0058548
0.6153,-1.52,-0.0059294
0.62128,-1.54,-0.0060066
0.62726,-1.56,-0.0060826
0.63332,-1.58,-0.0061602
0.6393,-1.6,-0.0062374
0.64528,-1.62,-0.0063092
0.65127,-1.64,-0.0063866
0.65725,-1.66,-0.0064632
0.66324,-1.68,-0.0065374
0.66923,-1.7,-0.0066128
0.67521,-1.72,-0.0066842
0.68118,-1.74,-0.0067634
0.68723,-1.76,-0.0068394
0.69321,-1.78,-0.0069142
0.69919,-1.8,-0.0069884
0.70514,-1.82,-0.0070646
0.71114,-1.84,-0.0071416
0.71714,-1.86,-0.0072184
0.72313,-1.88,-0.0072898
0.72912,-1.9,-0.0073646
0.73511,-1.92,-0.007441
0.7411,-1.94,-0.0075166
0.74709,-1.96,-0.0075882
0.75309,-1.98,-0.0076628
0.75914,-2.0,-0.0077406
0.76257,-2.0,-0.0077384
0.76854,-1.98,-0.0076648
0.77453,-1.96,-0.0075912
0.78051,-1.94,-0.0075126
0.78649,-1.92,-0.007439
0.79247,-1.9,-0.007367
0.79844,-1.88,-0.0072888
0.80443,-1.86,-0.007215
0.8104,-1.84,-0.0071402
0.81639,-1.82,-0.0070636
0.82238,-1.8,-0.0069928
0.82837,-1.78,-0.0069134
0.83434,-1.76,-0.0068388
0.84033,-1.74,-0.0067654
0.8463,-1.72,-0.0066888
0.85229,-1.7,-0.0066134
0.85828,-1.68,-0.0065372
0.86433,-1.66,-0.0064606
0.8703,-1.64,-0.006388
0.87629,-1.62,-0.0063106
0.88229,-1.6,-0.0062336
0.88827,-1.58,-0.0061598
0.89426,-1.56,-0.0060838
0.90025,-1.54,-0.006013
0.90624,-1.52,-0.0059318
0.91224,-1.5,-0.0058558
0.91822,-1.48,-0.0057802
0.92421,-1.46,-0.0057052
0.93019,-1.44,-0.0056274
0.93617,-1.42,-0.0055492
0.94215,-1.4,-0.0054724
0.94814,-1.38,-0.0053986
0.95415,-1.36,-0.0053228
0.96013,-1.34,-0.0052446
0.96618,-1.32,-0.005167
0.97216,-1.3,-0.0050934
0.97814,-1.28,-0.0050166
0.98414,-1.26,-0.0049362
0.99012,-1.24,-0.0048622
0.99609,-1.22,-0.0047842
1.00206,-1.2,-0.0047072
1.00805,-1.18,-0.0046312
1.01405,-1.16,-0.0045498
1.02002,-1.14,-0.0044768
1.02598,-1.12,-0.0043988
1.03197,-1.1,-0.0043202
1.03796,-1.08,-0.004244
1.04395,-1.06,-0.0041668
1.04994,-1.04,-0.0040906
1.05599,-1.02,-0.004014
1.06194,-1.0,-0.0039326
1.06792,-0.98,-0.0038564
1.07391,-0.96,-0.0037802
1.07989,-0.94,-0.0037006
1.08588,-0.92,-0.0036232
1.09186,-0.9,-0.00354
1.09784,-0.88,-0.003467
1.10389,-0.86,-0.0033894
1.10987,-0.84,-0.0033106
1.11585,-0.82,-0.0032308
1.12184,-0.8,-0.0031548
1.12781,-0.78,-0.0030782
1.1338,-0.76,-0.003001
1.13978,-0.74,-0.0029194
1.14581,-0.72,-0.0028408
1.15179,-0.7,-0.0027638
1.15777,-0.68,-0.0026866
1.16375,-0.66,-0.002605
1.16973,-0.64,-0.0025256
1.17571,-0.62,-0.0024508
1.1817,-0.6,-0.00237
1.18769,-0.58,-0.002292
1.19367,-0.56,-0.002213
1.19966,-0.54,-0.002133
1.20571,-0.52,-0.0020586
1.21169,-0.5,-0.0019758
1.21768,-0.48,-0.0018976
1.22374,-0.46,-0.0018202
1.22977,-0.44,-0.0017404
1.23575,-0.42,-0.0016616
1.24173,-0.4,-0.0015788
1.24771,-0.38,-0.0015014
1.25377,-0.36,-0.0014246
1.25975,-0.34,-0.0013448
1.26572,-0.32,-0.0012642
1.2717,-0.3,-0.001187
1.27768,-0.28,-0.001109
1.28366,-0.26,-0.0010336
1.29591,-0.24,-0.00094878
1.30188,-0.22,-0.00087088
1.30786,-0.2,-0.00079304
1.31387,-0.18,-0.00071032
1.31985,-0.16,-0.00063242
1.32583,-0.14,-0.00055606
1.33181,-0.12,-0.00047388
1.33779,-0.1,-0.00039546
1.34378,-0.08,-0.00031708
1.34976,-0.06,-0.00023694
1.35572,-0.04,-0.000162
1.36777,-0.02,-7.8892e-05
1.40714,0.0,-2.2822e-07
